Time (ms),Cell 1 (mV),Cell 2 (mV),Cell 3 (mV)
0.1,-65,-60,-60
1.1,-65.0969,-62.5103,-61.082
2.1,-65.156,-63.4116,-62.3527
3.1,-65.1834,-63.9883,-63.256
4.1,-65.1991,-64.3803,-63.8779
5.1,-65.2115,-64.6491,-64.3044
6.1,-65.2237,-64.8348,-64.5974
7.1,-65.2363,-64.9647,-64.7998
8.1,-65.2494,-65.0569,-64.9411
9.1,-65.2626,-65.1237,-65.041
10,-65.2743,-65.1688,-65.1067
10.1,-65.2755,-65.1731,-65.1129
11.1,-65.288,-65.2106,-65.1657
12.1,-65.2998,-65.2398,-65.2055
13.1,-65.3108,-65.2632,-65.2363
14.1,-65.3209,-65.2822,-65.2606
15.1,-65.3302,-65.2981,-65.2804
16.1,-65.3387,-65.3115,-65.2967
17.1,-65.3463,-65.3231,-65.3105
18.1,-65.3532,-65.3331,-65.3222
19.1,-65.3594,-65.3419,-65.3324
20,-65.3645,-65.3488,-65.3405
20.1,-65.365,-65.3496,-65.3413
21.1,-65.37,-65.3564,-65.3491
22.1,-65.3745,-65.3624,-65.356
23.1,-65.3785,-65.3678,-65.3621
24.1,-65.3821,-65.3725,-65.3675
25.1,-65.3853,-65.3768,-65.3723
26.1,-65.3881,-65.3806,-65.3766
27.1,-65.3907,-65.384,-65.3804
28.1,-65.393,-65.387,-65.3838
29.1,-65.395,-65.3897,-65.3868
30,-65.3967,-65.3918,-65.3893
30.1,-65.3968,-65.3921,-65.3895
31.1,-65.3985,-65.3942,-65.3919
32.1,-65.3999,-65.3961,-65.3941
33.1,-65.4012,-65.3978,-65.396
34.1,-65.4024,-65.3993,-65.3977
35.1,-65.4034,-65.4007,-65.3993
36.1,-65.4043,-65.4019,-65.4006
37.1,-65.4052,-65.403,-65.4018
38.1,-65.4059,-65.404,-65.4029
39.1,-65.4065,-65.4048,-65.4039
40,-65.4071,-65.4055,-65.4047
40.1,-65.4071,-65.4056,-65.4048
41.1,-65.4077,-65.4063,-65.4056
42.1,-65.4081,-65.4069,-65.4062
43.1,-65.4085,-65.4074,-65.4069
44.1,-65.4089,-65.4079,-65.4074
45.1,-65.4093,-65.4084,-65.4079
46.1,-65.4096,-65.4088,-65.4084
47.1,-65.4098,-65.4091,-65.4087
48.1,-65.4101,-65.4094,-65.4091
49.1,-65.4103,-65.4097,-65.4094
50,-65.4104,-65.4099,-65.4097
50.1,-65.4105,-65.41,-65.4097
51.1,-65.4106,-65.4102,-65.4099
52.1,-65.4108,-65.4104,-65.4102
53.1,-65.4109,-65.4106,-65.4104
54.1,-65.411,-65.4107,-65.4105
55.1,-65.4111,-65.4109,-65.4107
56.1,-65.4112,-65.411,-65.4109
57.1,-65.4113,-65.4111,-65.411
58.1,-65.4114,-65.4112,-65.4111
59.1,-65.4115,-65.4113,-65.4112
60,-65.4115,-65.4114,-65.4113
60.1,-65.4115,-65.4114,-65.4113
61.1,-65.4116,-65.4114,-65.4114
62.1,-65.4116,-65.4115,-65.4114
63.1,-65.4117,-65.4116,-65.4115
64.1,-65.4117,-65.4116,-65.4116
65.1,-65.4117,-65.4117,-65.4116
66.1,-65.4118,-65.4117,-65.4117
67.1,-65.4118,-65.4117,-65.4117
68.1,-65.4118,-65.4118,-65.4117
69.1,-65.4119,-65.4118,-65.4118
70,-65.4119,-65.4118,-65.4118
70.1,-65.4119,-65.4118,-65.4118
71.1,-65.4119,-65.4118,-65.4118
72.1,-65.4119,-65.4119,-65.4118
73.1,-65.4119,-65.4119,-65.4119
74.1,-65.4119,-65.4119,-65.4119
75.1,-65.4119,-65.4119,-65.4119
76.1,-65.412,-65.4119,-65.4119
77.1,-65.412,-65.4119,-65.4119
78.1,-65.412,-65.412,-65.4119
79.1,-65.412,-65.412,-65.412
80,-65.412,-65.412,-65.412
80.1,-65.412,-65.412,-65.412
81.1,-65.412,-65.412,-65.412
82.1,-65.412,-65.412,-65.412
83.1,-65.412,-65.412,-65.412
84.1,-65.412,-65.412,-65.412
85.1,-65.412,-65.412,-65.412
86.1,-65.412,-65.412,-65.412
87.1,-65.412,-65.412,-65.412
88.1,-65.412,-65.412,-65.412
89.1,-65.412,-65.412,-65.412
90,-65.412,-65.412,-65.412
90.1,-65.412,-65.412,-65.412
91.1,-65.412,-65.412,-65.412
92.1,-65.412,-65.412,-65.412
93.1,-65.412,-65.412,-65.412
94.1,-65.412,-65.412,-65.412
95.1,-65.412,-65.412,-65.412
96.1,-65.412,-65.412,-65.412
97.1,-65.412,-65.412,-65.412
98.1,-65.412,-65.412,-65.412
99.1,-65.412,-65.412,-65.412
100,-65.412,-65.412,-65.412
100.1,-65.412,-65.412,-65.412
101.1,-61.1651,-64.2527,-65.1456
102.1,-56.9888,-61.7461,-63.7228
103.1,-53.178,-58.834,-61.435
104.1,-49.0912,-55.6217,-58.6438
105.1,-40.6121,-51.2781,-55.3033
106.1,13.5045,-33.8149,-48.2836
107.1,28.8177,-7.58642,-28.64
108.1,19.234,2.01911,-10.9558
109.1,6.81228,3.37293,-1.70252
110,-4.54373,0.48631,0.63998
110.1,-5.77228,-0.00132721,0.624613
111.1,-17.6583,-6.14031,-1.80978
112.1,-30.7202,-14.2245,-7.32561
113.1,-55.4959,-27.1693,-15.8488
114.1,-63.5781,-41.1814,-28.5401
115.1,-62.3137,-48.4931,-39.5949
116.1,-59.6964,-52.1091,-46.8001
117.1,-57.0764,-53.6163,-50.8715
118.1,-54.7731,-53.8822,-52.8029
119.1,-52.8424,-53.4485,-53.3821
120,-51.4191,-52.7499,-53.2093
120.1,-51.2796,-52.6628,-53.1634
121.1,-50.1105,-51.7617,-52.5239
122.1,-49.4438,-50.9394,-51.7309
123.1,-49.4632,-50.3928,-51.0037
124.1,-50.2522,-50.3018,-50.5454
125.1,-51.513,-50.7019,-50.5024
126.1,-52.6911,-51.4021,-50.868
127.1,-53.4415,-52.1284,-51.4743
128.1,-53.7378,-52.6984,-52.1106
129.1,-53.7031,-53.0495,-52.6281
130,-53.5074,-53.1894,-52.9388
130.1,-53.4802,-53.1962,-52.9639
131.1,-53.1842,-53.1874,-53.1191
132.1,-52.8962,-53.0819,-53.1305
133.1,-52.6666,-52.934,-53.0482
134.1,-52.5203,-52.7875,-52.9217
135.1,-52.4605,-52.672,-52.7917
136.1,-52.4731,-52.6018,-52.6866
137.1,-52.5332,-52.5777,-52.6206
138.1,-52.6131,-52.5905,-52.5955
139.1,-52.6895,-52.6257,-52.6037
140,-52.7424,-52.6645,-52.6295
140.1,-52.7471,-52.6688,-52.633
141.1,-52.7802,-52.7082,-52.6705
142.1,-52.79,-52.737,-52.7058
143.1,-52.7825,-52.7529,-52.7324
144.1,-52.765,-52.757,-52.7478
145.1,-52.7444,-52.7524,-52.7526
146.1,-52.726,-52.743,-52.7494
147.1,-52.7129,-52.7323,-52.7415
148.1,-52.706,-52.723,-52.7321
149.1,-52.7047,-52.7165,-52.7238
150,-52.707,-52.7135,-52.7182
150.1,-52.7074,-52.7133,-52.7178
151.1,-56.7437,-53.8368,-52.9761
152.1,-59.8157,-55.9855,-54.2812
153.1,-61.64,-57.9741,-56.103
154.1,-62.7052,-59.5977,-57.9088
155.1,-63.3484,-60.8633,-59.4685
156.1,-63.7598,-61.8302,-60.7288
157.1,-64.0409,-62.5633,-61.7131
158.1,-64.2457,-63.1191,-62.4691
159.1,-64.4037,-63.5426,-63.0464
160,-64.5194,-63.8393,-63.4487
160.1,-64.5311,-63.8683,-63.4878
161.1,-64.6371,-64.1216,-63.8274
162.1,-64.7275,-64.3214,-64.0912
163.1,-64.8057,-64.4813,-64.2988
164.1,-64.874,-64.6111,-64.4643
165.1,-64.9341,-64.718,-64.5983
166.1,-64.9871,-64.8072,-64.7082
167.1,-65.0341,-64.8825,-64.7996
168.1,-65.0757,-64.9466,-64.8765
169.1,-65.1126,-65.0018,-64.9419
170,-65.1423,-65.0451,-64.9927
170.1,-65.1454,-65.0496,-64.9979
171.1,-65.1746,-65.0912,-65.0464
172.1,-65.2005,-65.1276,-65.0885
173.1,-65.2236,-65.1596,-65.1254
174.1,-65.2441,-65.1877,-65.1576
175.1,-65.2623,-65.2126,-65.1861
176.1,-65.2785,-65.2346,-65.2111
177.1,-65.293,-65.254,-65.2333
178.1,-65.3059,-65.2713,-65.253
179.1,-65.3173,-65.2867,-65.2704
180,-65.3266,-65.299,-65.2844
180.1,-65.3275,-65.3003,-65.2858
181.1,-65.3367,-65.3124,-65.2996
182.1,-65.3448,-65.3232,-65.3118
183.1,-65.352,-65.3328,-65.3226
184.1,-65.3585,-65.3414,-65.3323
185.1,-65.3642,-65.349,-65.3409
186.1,-65.3694,-65.3558,-65.3486
187.1,-65.3739,-65.3618,-65.3554
188.1,-65.378,-65.3672,-65.3615
189.1,-65.3817,-65.3721,-65.367
190,-65.3846,-65.3759,-65.3713
190.1,-65.3849,-65.3764,-65.3718
191.1,-65.3878,-65.3802,-65.3761
192.1,-65.3904,-65.3836,-65.38
193.1,-65.3927,-65.3866,-65.3834
194.1,-65.3948,-65.3894,-65.3865
195.1,-65.3967,-65.3918,-65.3892
196.1,-65.3983,-65.394,-65.3917
197.1,-65.3998,-65.3959,-65.3939
198.1,-65.4011,-65.3976,-65.3958
199.1,-65.4023,-65.3992,-65.3975
200,-65.4032,-65.4004,-65.3989
200.1,-65.4033,-65.4005,-65.3991
201.1,-65.4042,-65.4018,-65.4005
202.1,-65.4051,-65.4029,-65.4017
203.1,-65.4058,-65.4039,-65.4028
204.1,-65.4065,-65.4047,-65.4038
205.1,-65.4071,-65.4055,-65.4047
206.1,-65.4076,-65.4062,-65.4055
207.1,-65.4081,-65.4068,-65.4062
208.1,-65.4085,-65.4074,-65.4068
209.1,-65.4089,-65.4079,-65.4074
210,-65.4092,-65.4083,-65.4078
210.1,-65.4092,-65.4083,-65.4079
211.1,-65.4095,-65.4087,-65.4083
212.1,-65.4098,-65.4091,-65.4087
213.1,-65.41,-65.4094,-65.4091
214.1,-65.4102,-65.4097,-65.4094
215.1,-65.4104,-65.4099,-65.4097
216.1,-65.4106,-65.4102,-65.4099
217.1,-65.4108,-65.4104,-65.4101
218.1,-65.4109,-65.4105,-65.4103
219.1,-65.411,-65.4107,-65.4105
220,-65.4111,-65.4108,-65.4107
220.1,-65.4111,-65.4108,-65.4107
221.1,-65.4112,-65.411,-65.4108
222.1,-65.4113,-65.4111,-65.411
223.1,-65.4114,-65.4112,-65.4111
224.1,-65.4115,-65.4113,-65.4112
225.1,-65.4115,-65.4114,-65.4113
226.1,-65.4116,-65.4114,-65.4114
227.1,-65.4116,-65.4115,-65.4114
228.1,-65.4117,-65.4116,-65.4115
229.1,-65.4117,-65.4116,-65.4116
230,-65.4117,-65.4116,-65.4116
230.1,-65.4117,-65.4117,-65.4116
231.1,-65.4118,-65.4117,-65.4117
232.1,-65.4118,-65.4117,-65.4117
233.1,-65.4118,-65.4118,-65.4117
234.1,-65.4119,-65.4118,-65.4118
235.1,-65.4119,-65.4118,-65.4118
236.1,-65.4119,-65.4118,-65.4118
237.1,-65.4119,-65.4119,-65.4118
238.1,-65.4119,-65.4119,-65.4119
239.1,-65.4119,-65.4119,-65.4119
240,-65.4119,-65.4119,-65.4119
240.1,-65.4119,-65.4119,-65.4119
241.1,-65.412,-65.4119,-65.4119
242.1,-65.412,-65.4119,-65.4119
243.1,-65.412,-65.412,-65.4119
244.1,-65.412,-65.412,-65.412
245.1,-65.412,-65.412,-65.412
246.1,-65.412,-65.412,-65.412
247.1,-65.412,-65.412,-65.412
248.1,-65.412,-65.412,-65.412
249.1,-65.412,-65.412,-65.412
250,-65.412,-65.412,-65.412
250.1,-65.412,-65.412,-65.412
251.1,-61.1651,-64.2527,-65.1455
252.1,-56.9887,-61.746,-63.7228
253.1,-53.178,-58.8339,-61.435
254.1,-49.0912,-55.6217,-58.6438
255.1,-40.612,-51.2781,-55.3033
256.1,13.5045,-33.8148,-48.2836
257.1,28.8176,-7.58642,-28.64
258.1,19.2339,2.01909,-10.9558
259.1,6.81222,3.3729,-1.70254
260,-4.5438,0.486267,0.639949
260.1,-5.77234,-0.00137154,0.624581
261.1,-17.6584,-6.14036,-1.80982
262.1,-30.7203,-14.2245,-7.32566
263.1,-55.496,-27.1694,-15.8488
264.1,-63.5781,-41.1815,-28.5402
265.1,-62.3136,-48.4931,-39.595
266.1,-59.6964,-52.1092,-46.8001
267.1,-57.0763,-53.6163,-50.8716
268.1,-54.773,-53.8822,-52.8029
269.1,-52.8424,-53.4485,-53.3821
270,-51.4191,-52.7499,-53.2093
270.1,-51.2796,-52.6628,-53.1634
271.1,-50.1105,-51.7617,-52.5239
272.1,-49.4438,-50.9394,-51.7309
273.1,-49.4632,-50.3928,-51.0037
274.1,-50.2522,-50.3018,-50.5454
275.1,-51.513,-50.7019,-50.5024
276.1,-52.6911,-51.4021,-50.868
277.1,-53.4415,-52.1284,-51.4743
278.1,-53.7378,-52.6984,-52.1106
279.1,-53.7031,-53.0495,-52.6281
280,-53.5074,-53.1894,-52.9388
280.1,-53.4801,-53.1962,-52.9639
281.1,-53.1842,-53.1874,-53.1191
282.1,-52.8962,-53.0819,-53.1305
283.1,-52.6666,-52.934,-53.0482
284.1,-52.5203,-52.7875,-52.9217
285.1,-52.4605,-52.672,-52.7917
286.1,-52.4731,-52.6018,-52.6866
287.1,-52.5332,-52.5777,-52.6206
288.1,-52.6131,-52.5905,-52.5955
289.1,-52.6895,-52.6257,-52.6037
290,-52.7424,-52.6645,-52.6295
290.1,-52.7471,-52.6688,-52.633
291.1,-52.7802,-52.7082,-52.6705
292.1,-52.79,-52.737,-52.7058
293.1,-52.7825,-52.7529,-52.7324
294.1,-52.765,-52.757,-52.7478
295.1,-52.7444,-52.7524,-52.7526
296.1,-52.726,-52.743,-52.7494
297.1,-52.7129,-52.7323,-52.7415
298.1,-52.706,-52.723,-52.7321
299.1,-52.7047,-52.7165,-52.7238
300,-52.707,-52.7135,-52.7182
300.1,-52.7074,-52.7133,-52.7178
301.1,-56.7437,-53.8368,-52.9761
302.1,-59.8157,-55.9855,-54.2812
303.1,-61.64,-57.9741,-56.103
304.1,-62.7052,-59.5977,-57.9088
305.1,-63.3484,-60.8633,-59.4685
306.1,-63.7598,-61.8302,-60.7288
307.1,-64.0409,-62.5633,-61.7131
308.1,-64.2457,-63.1191,-62.4691
309.1,-64.4037,-63.5426,-63.0464
310,-64.5194,-63.8393,-63.4487
310.1,-64.5311,-63.8683,-63.4878
311.1,-64.6371,-64.1216,-63.8274
312.1,-64.7275,-64.3214,-64.0912
313.1,-64.8057,-64.4813,-64.2988
314.1,-64.874,-64.6111,-64.4643
315.1,-64.9341,-64.718,-64.5983
316.1,-64.9871,-64.8072,-64.7082
317.1,-65.0341,-64.8825,-64.7996
318.1,-65.0757,-64.9466,-64.8765
319.1,-65.1126,-65.0018,-64.9419
320,-65.1423,-65.0451,-64.9927
320.1,-65.1454,-65.0496,-64.9979
321.1,-65.1746,-65.0912,-65.0464
322.1,-65.2005,-65.1276,-65.0885
323.1,-65.2236,-65.1596,-65.1254
324.1,-65.2441,-65.1877,-65.1576
325.1,-65.2623,-65.2126,-65.1861
326.1,-65.2785,-65.2346,-65.2111
327.1,-65.293,-65.254,-65.2333
328.1,-65.3059,-65.2713,-65.253
329.1,-65.3173,-65.2867,-65.2704
330,-65.3266,-65.299,-65.2844
330.1,-65.3275,-65.3003,-65.2858
331.1,-65.3367,-65.3124,-65.2996
332.1,-65.3448,-65.3232,-65.3118
333.1,-65.352,-65.3328,-65.3226
334.1,-65.3585,-65.3414,-65.3323
335.1,-65.3642,-65.349,-65.3409
336.1,-65.3694,-65.3558,-65.3486
337.1,-65.3739,-65.3618,-65.3554
338.1,-65.378,-65.3672,-65.3615
339.1,-65.3817,-65.3721,-65.367
340,-65.3846,-65.3759,-65.3713
340.1,-65.3849,-65.3764,-65.3718
341.1,-65.3878,-65.3802,-65.3761
342.1,-65.3904,-65.3836,-65.38
343.1,-65.3927,-65.3866,-65.3834
344.1,-65.3948,-65.3894,-65.3865
345.1,-65.3967,-65.3918,-65.3892
346.1,-65.3983,-65.394,-65.3917
347.1,-65.3998,-65.3959,-65.3939
348.1,-65.4011,-65.3976,-65.3958
349.1,-65.4023,-65.3992,-65.3975
350,-65.4032,-65.4004,-65.3989
350.1,-65.4033,-65.4005,-65.3991
351.1,-65.4042,-65.4018,-65.4005
352.1,-65.4051,-65.4029,-65.4017
353.1,-65.4058,-65.4039,-65.4028
354.1,-65.4065,-65.4047,-65.4038
355.1,-65.4071,-65.4055,-65.4047
356.1,-65.4076,-65.4062,-65.4055
357.1,-65.4081,-65.4068,-65.4062
358.1,-65.4085,-65.4074,-65.4068
359.1,-65.4089,-65.4079,-65.4074
360,-65.4092,-65.4083,-65.4078
360.1,-65.4092,-65.4083,-65.4079
361.1,-65.4095,-65.4087,-65.4083
362.1,-65.4098,-65.4091,-65.4087
363.1,-65.41,-65.4094,-65.4091
364.1,-65.4102,-65.4097,-65.4094
365.1,-65.4104,-65.4099,-65.4097
366.1,-65.4106,-65.4102,-65.4099
367.1,-65.4108,-65.4104,-65.4101
368.1,-65.4109,-65.4105,-65.4103
369.1,-65.411,-65.4107,-65.4105
370,-65.4111,-65.4108,-65.4107
370.1,-65.4111,-65.4108,-65.4107
371.1,-65.4112,-65.411,-65.4108
372.1,-65.4113,-65.4111,-65.411
373.1,-65.4114,-65.4112,-65.4111
374.1,-65.4115,-65.4113,-65.4112
375.1,-65.4115,-65.4114,-65.4113
376.1,-65.4116,-65.4114,-65.4114
377.1,-65.4116,-65.4115,-65.4114
378.1,-65.4117,-65.4116,-65.4115
379.1,-65.4117,-65.4116,-65.4116
380,-65.4117,-65.4116,-65.4116
380.1,-65.4117,-65.4117,-65.4116
381.1,-65.4118,-65.4117,-65.4117
382.1,-65.4118,-65.4117,-65.4117
383.1,-65.4118,-65.4118,-65.4117
384.1,-65.4119,-65.4118,-65.4118
385.1,-65.4119,-65.4118,-65.4118
386.1,-65.4119,-65.4118,-65.4118
387.1,-65.4119,-65.4119,-65.4118
388.1,-65.4119,-65.4119,-65.4119
389.1,-65.4119,-65.4119,-65.4119
390,-65.4119,-65.4119,-65.4119
390.1,-65.4119,-65.4119,-65.4119
391.1,-65.412,-65.4119,-65.4119
392.1,-65.412,-65.4119,-65.4119
393.1,-65.412,-65.412,-65.4119
394.1,-65.412,-65.412,-65.412
395.1,-65.412,-65.412,-65.412
396.1,-65.412,-65.412,-65.412
397.1,-65.412,-65.412,-65.412
398.1,-65.412,-65.412,-65.412
399.1,-65.412,-65.412,-65.412
400,-65.412,-65.412,-65.412
400.1,-65.412,-65.412,-65.412
401.1,-60.7242,-64.0332,-65.0562
402.1,-56.5963,-61.468,-63.5251
403.1,-52.8006,-58.5285,-61.1749
404.1,-48.5969,-55.2709,-58.3416
405.1,-38.6186,-50.614,-54.9007
406.1,18.6168,-30.5298,-46.8367
407.1,28.1798,-6.05138,-26.5347
408.1,18.0525,2.44308,-9.65834
409.1,5.53536,3.20928,-1.195
410,-5.77234,-0.00137215,0.62458
410.1,-6.99213,-0.515874,0.561985
411.1,-18.8358,-6.85911,-2.24288
412.1,-32.4141,-15.1842,-8.01555
413.1,-57.4975,-28.87,-16.9809
414.1,-63.6158,-42.157,-29.8043
415.1,-62.0744,-48.9853,-40.4848
416.1,-59.4255,-52.337,-47.331
417.1,-56.8298,-53.6879,-51.146
418.1,-54.5632,-53.8633,-52.9109
419.1,-52.6696,-53.3813,-53.3887
420,-51.2796,-52.6628,-53.1634
420.1,-51.144,-52.5745,-53.1133
421.1,-50.0186,-51.6728,-52.4476
422.1,-49.4117,-50.869,-51.6517
423.1,-49.5087,-50.3609,-50.9426
424.1,-50.3657,-50.3212,-50.521
425.1,-51.643,-50.7631,-50.5224
426.1,-52.7879,-51.4776,-50.9214
427.1,-53.4901,-52.1943,-51.5397
428.1,-53.7468,-52.7435,-52.1693
429.1,-53.6871,-53.0728,-52.6703
430,-53.4801,-53.1962,-52.9639
430.1,-53.4522,-53.2013,-52.9871
431.1,-53.154,-53.1803,-53.1259
432.1,-52.87,-53.0682,-53.1257
433.1,-52.648,-52.9187,-53.0368
434.1,-52.5106,-52.7742,-52.9083
435.1,-52.4589,-52.6628,-52.7798
436.1,-52.4774,-52.5974,-52.6781
437.1,-52.5407,-52.5776,-52.6163
438.1,-52.6213,-52.5932,-52.595
439.1,-52.6962,-52.6299,-52.6059
440,-52.7471,-52.6688,-52.633
440.1,-52.7516,-52.673,-52.6366
441.1,-52.7821,-52.7116,-52.6742
442.1,-52.79,-52.7392,-52.7089
443.1,-52.7811,-52.7538,-52.7344
444.1,-52.763,-52.7569,-52.7487
445.1,-52.7424,-52.7517,-52.7526
446.1,-52.7245,-52.742,-52.7487
447.1,-52.7119,-52.7313,-52.7406
448.1,-52.7056,-52.7222,-52.7312
449.1,-52.7048,-52.7161,-52.723
450,-52.7074,-52.7133,-52.7178
450.1,-52.7078,-52.7132,-52.7173
451.1,-57.12,-54.0414,-53.0622
452.1,-60.0457,-56.1981,-54.4516
453.1,-61.7737,-58.1536,-56.2901
454.1,-62.7844,-59.7396,-58.0777
455.1,-63.3978,-60.9723,-59.608
456.1,-63.7926,-61.913,-60.8389
457.1,-64.0641,-62.6261,-61.7981
458.1,-64.2633,-63.1668,-62.5341
459.1,-64.4176,-63.5791,-63.096
460,-64.5311,-63.8683,-63.4878
460.1,-64.5425,-63.8965,-63.5258
461.1,-64.6468,-64.1437,-63.8568
462.1,-64.7358,-64.339,-64.1142
463.1,-64.813,-64.4954,-64.317
464.1,-64.8804,-64.6227,-64.479
465.1,-64.9397,-64.7276,-64.6103
466.1,-64.9921,-64.8153,-64.7181
467.1,-65.0385,-64.8893,-64.8079
468.1,-65.0796,-64.9525,-64.8835
469.1,-65.1161,-65.0069,-64.9479
470,-65.1454,-65.0496,-64.9979
470.1,-65.1485,-65.054,-65.0031
471.1,-65.1773,-65.0951,-65.0509
472.1,-65.2029,-65.131,-65.0924
473.1,-65.2257,-65.1625,-65.1288
474.1,-65.246,-65.1903,-65.1607
475.1,-65.264,-65.2149,-65.1887
476.1,-65.2801,-65.2366,-65.2135
477.1,-65.2943,-65.2559,-65.2354
478.1,-65.3071,-65.2729,-65.2548
479.1,-65.3184,-65.2881,-65.272
480,-65.3275,-65.3003,-65.2858
480.1,-65.3285,-65.3016,-65.2873
481.1,-65.3375,-65.3136,-65.3008
482.1,-65.3455,-65.3242,-65.3129
483.1,-65.3527,-65.3337,-65.3237
484.1,-65.3591,-65.3422,-65.3332
485.1,-65.3648,-65.3497,-65.3417
486.1,-65.3698,-65.3564,-65.3493
487.1,-65.3744,-65.3624,-65.3561
488.1,-65.3784,-65.3677,-65.3621
489.1,-65.382,-65.3725,-65.3675
490,-65.3849,-65.3764,-65.3718
490.1,-65.3852,-65.3768,-65.3723
491.1,-65.3881,-65.3805,-65.3765
492.1,-65.3907,-65.3839,-65.3803
493.1,-65.393,-65.3869,-65.3837
494.1,-65.395,-65.3896,-65.3868
495.1,-65.3968,-65.392,-65.3895
496.1,-65.3985,-65.3942,-65.3919
497.1,-65.3999,-65.3961,-65.3941
498.1,-65.4012,-65.3978,-65.396
499.1,-65.4024,-65.3993,-65.3977
500,-65.4033,-65.4005,-65.3991
500.1,-65.4034,-65.4007,-65.3992
501.1,-65.4043,-65.4019,-65.4006
502.1,-65.4051,-65.403,-65.4018
503.1,-65.4059,-65.4039,-65.4029
504.1,-65.4065,-65.4048,-65.4039
505.1,-65.4071,-65.4056,-65.4048
506.1,-65.4077,-65.4063,-65.4055
507.1,-65.4081,-65.4069,-65.4062
508.1,-65.4085,-65.4074,-65.4069
509.1,-65.4089,-65.4079,-65.4074
510,-65.4092,-65.4083,-65.4079
510.1,-65.4092,-65.4084,-65.4079
511.1,-65.4095,-65.4088,-65.4084
512.1,-65.4098,-65.4091,-65.4087
513.1,-65.4101,-65.4094,-65.4091
514.1,-65.4103,-65.4097,-65.4094
515.1,-65.4105,-65.41,-65.4097
516.1,-65.4106,-65.4102,-65.4099
517.1,-65.4108,-65.4104,-65.4102
518.1,-65.4109,-65.4106,-65.4104
519.1,-65.411,-65.4107,-65.4105
520,-65.4111,-65.4108,-65.4107
520.1,-65.4111,-65.4109,-65.4107
521.1,-65.4112,-65.411,-65.4108
522.1,-65.4113,-65.4111,-65.411
523.1,-65.4114,-65.4112,-65.4111
524.1,-65.4115,-65.4113,-65.4112
525.1,-65.4115,-65.4114,-65.4113
526.1,-65.4116,-65.4114,-65.4114
527.1,-65.4116,-65.4115,-65.4114
528.1,-65.4117,-65.4116,-65.4115
529.1,-65.4117,-65.4116,-65.4116
530,-65.4117,-65.4117,-65.4116
530.1,-65.4117,-65.4117,-65.4116
531.1,-65.4118,-65.4117,-65.4117
532.1,-65.4118,-65.4117,-65.4117
533.1,-65.4118,-65.4118,-65.4117
534.1,-65.4119,-65.4118,-65.4118
535.1,-65.4119,-65.4118,-65.4118
536.1,-65.4119,-65.4118,-65.4118
537.1,-65.4119,-65.4119,-65.4118
538.1,-65.4119,-65.4119,-65.4119
539.1,-65.4119,-65.4119,-65.4119
540,-65.4119,-65.4119,-65.4119
540.1,-65.4119,-65.4119,-65.4119
541.1,-65.412,-65.4119,-65.4119
542.1,-65.412,-65.4119,-65.4119
543.1,-65.412,-65.412,-65.4119
544.1,-65.412,-65.412,-65.412
545.1,-65.412,-65.412,-65.412
546.1,-65.412,-65.412,-65.412
547.1,-65.412,-65.412,-65.412
548.1,-65.412,-65.412,-65.412
549.1,-65.412,-65.412,-65.412
550,-65.412,-65.412,-65.412
550.1,-65.412,-65.412,-65.412
551.1,-60.7242,-64.0332,-65.0562
552.1,-56.5963,-61.468,-63.5251
553.1,-52.8006,-58.5285,-61.1749
554.1,-48.5969,-55.2709,-58.3416
555.1,-38.6186,-50.614,-54.9007
556.1,18.6168,-30.5298,-46.8367
557.1,28.1798,-6.05138,-26.5347
558.1,18.0525,2.44308,-9.65834
559.1,5.53536,3.20929,-1.195
560,-5.77234,-0.00137154,0.624581
560.1,-6.99213,-0.515873,0.561986
561.1,-18.8358,-6.85911,-2.24288
562.1,-32.4141,-15.1842,-8.01555
563.1,-57.4975,-28.87,-16.9809
564.1,-63.6158,-42.157,-29.8043
565.1,-62.0744,-48.9853,-40.4848
566.1,-59.4255,-52.337,-47.331
567.1,-56.8298,-53.6879,-51.146
568.1,-54.5632,-53.8633,-52.9109
569.1,-52.6696,-53.3813,-53.3887
570,-51.2796,-52.6628,-53.1634
570.1,-51.144,-52.5745,-53.1133
571.1,-50.0186,-51.6728,-52.4476
572.1,-49.4117,-50.869,-51.6517
573.1,-49.5087,-50.3609,-50.9426
574.1,-50.3657,-50.3212,-50.521
575.1,-51.643,-50.7631,-50.5224
576.1,-52.7879,-51.4776,-50.9214
577.1,-53.4901,-52.1943,-51.5397
578.1,-53.7468,-52.7435,-52.1693
579.1,-53.6871,-53.0728,-52.6703
580,-53.4801,-53.1962,-52.9639
580.1,-53.4522,-53.2013,-52.9871
581.1,-53.154,-53.1803,-53.1259
582.1,-52.87,-53.0682,-53.1257
583.1,-52.648,-52.9187,-53.0368
584.1,-52.5106,-52.7742,-52.9083
585.1,-52.4589,-52.6628,-52.7798
586.1,-52.4774,-52.5974,-52.6781
587.1,-52.5407,-52.5776,-52.6163
588.1,-52.6213,-52.5932,-52.595
589.1,-52.6962,-52.6299,-52.6059
590,-52.7471,-52.6688,-52.633
590.1,-52.7516,-52.673,-52.6366
591.1,-52.7821,-52.7116,-52.6742
592.1,-52.79,-52.7392,-52.7089
593.1,-52.7811,-52.7538,-52.7344
594.1,-52.763,-52.7569,-52.7487
595.1,-52.7424,-52.7517,-52.7526
596.1,-52.7245,-52.742,-52.7487
597.1,-52.7119,-52.7313,-52.7406
598.1,-52.7056,-52.7222,-52.7312
599.1,-52.7048,-52.7161,-52.723
600,-52.7074,-52.7133,-52.7178
600.1,-52.7078,-52.7132,-52.7173
601.1,-57.12,-54.0414,-53.0622
602.1,-60.0457,-56.1981,-54.4516
603.1,-61.7737,-58.1536,-56.2901
604.1,-62.7844,-59.7396,-58.0777
605.1,-63.3978,-60.9723,-59.608
606.1,-63.7926,-61.913,-60.8389
607.1,-64.0641,-62.6261,-61.7981
608.1,-64.2633,-63.1668,-62.5341
609.1,-64.4176,-63.5791,-63.096
610,-64.5311,-63.8683,-63.4878
610.1,-64.5425,-63.8965,-63.5258
611.1,-64.6468,-64.1437,-63.8568
612.1,-64.7358,-64.339,-64.1142
613.1,-64.813,-64.4954,-64.317
614.1,-64.8804,-64.6227,-64.479
615.1,-64.9397,-64.7276,-64.6103
616.1,-64.9921,-64.8153,-64.7181
617.1,-65.0385,-64.8893,-64.8079
618.1,-65.0796,-64.9525,-64.8835
619.1,-65.1161,-65.0069,-64.9479
620,-65.1454,-65.0496,-64.9979
620.1,-65.1485,-65.054,-65.0031
621.1,-65.1773,-65.0951,-65.0509
622.1,-65.2029,-65.131,-65.0924
623.1,-65.2257,-65.1625,-65.1288
624.1,-65.246,-65.1903,-65.1607
625.1,-65.264,-65.2149,-65.1887
626.1,-65.2801,-65.2366,-65.2135
627.1,-65.2943,-65.2559,-65.2354
628.1,-65.3071,-65.2729,-65.2548
629.1,-65.3184,-65.2881,-65.272
630,-65.3275,-65.3003,-65.2858
630.1,-65.3285,-65.3016,-65.2873
631.1,-65.3375,-65.3136,-65.3008
632.1,-65.3455,-65.3242,-65.3129
633.1,-65.3527,-65.3337,-65.3237
634.1,-65.3591,-65.3422,-65.3332
635.1,-65.3648,-65.3497,-65.3417
636.1,-65.3698,-65.3564,-65.3493
637.1,-65.3744,-65.3624,-65.3561
638.1,-65.3784,-65.3677,-65.3621
639.1,-65.382,-65.3725,-65.3675
640,-65.3849,-65.3764,-65.3718
640.1,-65.3852,-65.3768,-65.3723
641.1,-65.3881,-65.3805,-65.3765
642.1,-65.3907,-65.3839,-65.3803
643.1,-65.393,-65.3869,-65.3837
644.1,-65.395,-65.3896,-65.3868
645.1,-65.3968,-65.392,-65.3895
646.1,-65.3985,-65.3942,-65.3919
647.1,-65.3999,-65.3961,-65.3941
648.1,-65.4012,-65.3978,-65.396
649.1,-65.4024,-65.3993,-65.3977
650,-65.4033,-65.4005,-65.3991
650.1,-65.4034,-65.4007,-65.3992
651.1,-65.4043,-65.4019,-65.4006
652.1,-65.4051,-65.403,-65.4018
653.1,-65.4059,-65.4039,-65.4029
654.1,-65.4065,-65.4048,-65.4039
655.1,-65.4071,-65.4056,-65.4048
656.1,-65.4077,-65.4063,-65.4055
657.1,-65.4081,-65.4069,-65.4062
658.1,-65.4085,-65.4074,-65.4069
659.1,-65.4089,-65.4079,-65.4074
660,-65.4092,-65.4083,-65.4079
660.1,-65.4092,-65.4084,-65.4079
661.1,-65.4095,-65.4088,-65.4084
662.1,-65.4098,-65.4091,-65.4087
663.1,-65.4101,-65.4094,-65.4091
664.1,-65.4103,-65.4097,-65.4094
665.1,-65.4105,-65.41,-65.4097
666.1,-65.4106,-65.4102,-65.4099
667.1,-65.4108,-65.4104,-65.4102
668.1,-65.4109,-65.4106,-65.4104
669.1,-65.411,-65.4107,-65.4105
670,-65.4111,-65.4108,-65.4107
670.1,-65.4111,-65.4109,-65.4107
671.1,-65.4112,-65.411,-65.4108
672.1,-65.4113,-65.4111,-65.411
673.1,-65.4114,-65.4112,-65.4111
674.1,-65.4115,-65.4113,-65.4112
675.1,-65.4115,-65.4114,-65.4113
676.1,-65.4116,-65.4114,-65.4114
677.1,-65.4116,-65.4115,-65.4114
678.1,-65.4117,-65.4116,-65.4115
679.1,-65.4117,-65.4116,-65.4116
680,-65.4117,-65.4117,-65.4116
680.1,-65.4117,-65.4117,-65.4116
681.1,-65.4118,-65.4117,-65.4117
682.1,-65.4118,-65.4117,-65.4117
683.1,-65.4118,-65.4118,-65.4117
684.1,-65.4119,-65.4118,-65.4118
685.1,-65.4119,-65.4118,-65.4118
686.1,-65.4119,-65.4118,-65.4118
687.1,-65.4119,-65.4119,-65.4118
688.1,-65.4119,-65.4119,-65.4119
689.1,-65.4119,-65.4119,-65.4119
690,-65.4119,-65.4119,-65.4119
690.1,-65.4119,-65.4119,-65.4119
691.1,-65.412,-65.4119,-65.4119
692.1,-65.412,-65.4119,-65.4119
693.1,-65.412,-65.412,-65.4119
694.1,-65.412,-65.412,-65.412
695.1,-65.412,-65.412,-65.412
696.1,-65.412,-65.412,-65.412
697.1,-65.412,-65.412,-65.412
698.1,-65.412,-65.412,-65.412
699.1,-65.412,-65.412,-65.412
700,-65.412,-65.412,-65.412
700.1,-65.412,-65.412,-65.412
701.1,-60.7242,-64.0332,-65.0562
702.1,-56.5963,-61.468,-63.5251
703.1,-52.8006,-58.5285,-61.1749
704.1,-48.5969,-55.2709,-58.3416
705.1,-38.6186,-50.614,-54.9007
706.1,18.6168,-30.5298,-46.8367
707.1,28.1798,-6.05138,-26.5347
708.1,18.0525,2.44308,-9.65834
709.1,5.53536,3.20929,-1.195
710,-5.77234,-0.00137154,0.624581
710.1,-6.99213,-0.515873,0.561986
711.1,-18.8358,-6.85911,-2.24288
712.1,-32.4141,-15.1842,-8.01555
713.1,-57.4975,-28.87,-16.9809
714.1,-63.6158,-42.157,-29.8043
715.1,-62.0744,-48.9853,-40.4848
716.1,-59.4255,-52.337,-47.331
717.1,-56.8298,-53.6879,-51.146
718.1,-54.5632,-53.8633,-52.9109
719.1,-52.6696,-53.3813,-53.3887
720,-51.2796,-52.6628,-53.1634
720.1,-51.144,-52.5745,-53.1133
721.1,-50.0186,-51.6728,-52.4476
722.1,-49.4117,-50.869,-51.6517
723.1,-49.5087,-50.3609,-50.9426
724.1,-50.3657,-50.3212,-50.521
725.1,-51.643,-50.7631,-50.5224
726.1,-52.7879,-51.4776,-50.9214
727.1,-53.4901,-52.1943,-51.5397
728.1,-53.7468,-52.7435,-52.1693
729.1,-53.6871,-53.0728,-52.6703
730,-53.4801,-53.1962,-52.9639
730.1,-53.4522,-53.2013,-52.9871
731.1,-53.154,-53.1803,-53.1259
732.1,-52.87,-53.0682,-53.1257
733.1,-52.648,-52.9187,-53.0368
734.1,-52.5106,-52.7742,-52.9083
735.1,-52.4589,-52.6628,-52.7798
736.1,-52.4774,-52.5974,-52.6781
737.1,-52.5407,-52.5776,-52.6163
738.1,-52.6213,-52.5932,-52.595
739.1,-52.6962,-52.6299,-52.6059
740,-52.7471,-52.6688,-52.633
740.1,-52.7516,-52.673,-52.6366
741.1,-52.7821,-52.7116,-52.6742
742.1,-52.79,-52.7392,-52.7089
743.1,-52.7811,-52.7538,-52.7344
744.1,-52.763,-52.7569,-52.7487
745.1,-52.7424,-52.7517,-52.7526
746.1,-52.7245,-52.742,-52.7487
747.1,-52.7119,-52.7313,-52.7406
748.1,-52.7056,-52.7222,-52.7312
749.1,-52.7048,-52.7161,-52.723
750,-52.7074,-52.7133,-52.7178
750.1,-52.7078,-52.7132,-52.7173
751.1,-57.12,-54.0414,-53.0622
752.1,-60.0457,-56.1981,-54.4516
753.1,-61.7737,-58.1536,-56.2901
754.1,-62.7844,-59.7396,-58.0777
755.1,-63.3978,-60.9723,-59.608
756.1,-63.7926,-61.913,-60.8389
757.1,-64.0641,-62.6261,-61.7981
758.1,-64.2633,-63.1668,-62.5341
759.1,-64.4176,-63.5791,-63.096
760,-64.5311,-63.8683,-63.4878
760.1,-64.5425,-63.8965,-63.5258
761.1,-64.6468,-64.1437,-63.8568
762.1,-64.7358,-64.339,-64.1142
763.1,-64.813,-64.4954,-64.317
764.1,-64.8804,-64.6227,-64.479
765.1,-64.9397,-64.7276,-64.6103
766.1,-64.9921,-64.8153,-64.7181
767.1,-65.0385,-64.8893,-64.8079
768.1,-65.0796,-64.9525,-64.8835
769.1,-65.1161,-65.0069,-64.9479
770,-65.1454,-65.0496,-64.9979
770.1,-65.1485,-65.054,-65.0031
771.1,-65.1773,-65.0951,-65.0509
772.1,-65.2029,-65.131,-65.0924
773.1,-65.2257,-65.1625,-65.1288
774.1,-65.246,-65.1903,-65.1607
775.1,-65.264,-65.2149,-65.1887
776.1,-65.2801,-65.2366,-65.2135
777.1,-65.2943,-65.2559,-65.2354
778.1,-65.3071,-65.2729,-65.2548
779.1,-65.3184,-65.2881,-65.272
780,-65.3275,-65.3003,-65.2858
780.1,-65.3285,-65.3016,-65.2873
781.1,-65.3375,-65.3136,-65.3008
782.1,-65.3455,-65.3242,-65.3129
783.1,-65.3527,-65.3337,-65.3237
784.1,-65.3591,-65.3422,-65.3332
785.1,-65.3648,-65.3497,-65.3417
786.1,-65.3698,-65.3564,-65.3493
787.1,-65.3744,-65.3624,-65.3561
788.1,-65.3784,-65.3677,-65.3621
789.1,-65.382,-65.3725,-65.3675
790,-65.3849,-65.3764,-65.3718
790.1,-65.3852,-65.3768,-65.3723
791.1,-65.3881,-65.3805,-65.3765
792.1,-65.3907,-65.3839,-65.3803
793.1,-65.393,-65.3869,-65.3837
794.1,-65.395,-65.3896,-65.3868
795.1,-65.3968,-65.392,-65.3895
796.1,-65.3985,-65.3942,-65.3919
797.1,-65.3999,-65.3961,-65.3941
798.1,-65.4012,-65.3978,-65.396
799.1,-65.4024,-65.3993,-65.3977
800,-65.4033,-65.4005,-65.3991
800.1,-65.4034,-65.4007,-65.3992
801.1,-65.4043,-65.4019,-65.4006
802.1,-65.4051,-65.403,-65.4018
803.1,-65.4059,-65.4039,-65.4029
804.1,-65.4065,-65.4048,-65.4039
805.1,-65.4071,-65.4056,-65.4048
806.1,-65.4077,-65.4063,-65.4055
807.1,-65.4081,-65.4069,-65.4062
808.1,-65.4085,-65.4074,-65.4069
809.1,-65.4089,-65.4079,-65.4074
810,-65.4092,-65.4083,-65.4079
810.1,-65.4092,-65.4084,-65.4079
811.1,-65.4095,-65.4088,-65.4084
812.1,-65.4098,-65.4091,-65.4087
813.1,-65.4101,-65.4094,-65.4091
814.1,-65.4103,-65.4097,-65.4094
815.1,-65.4105,-65.41,-65.4097
816.1,-65.4106,-65.4102,-65.4099
817.1,-65.4108,-65.4104,-65.4102
818.1,-65.4109,-65.4106,-65.4104
819.1,-65.411,-65.4107,-65.4105
820,-65.4111,-65.4108,-65.4107
820.1,-65.4111,-65.4109,-65.4107
821.1,-65.4112,-65.411,-65.4108
822.1,-65.4113,-65.4111,-65.411
823.1,-65.4114,-65.4112,-65.4111
824.1,-65.4115,-65.4113,-65.4112
825.1,-65.4115,-65.4114,-65.4113
826.1,-65.4116,-65.4114,-65.4114
827.1,-65.4116,-65.4115,-65.4114
828.1,-65.4117,-65.4116,-65.4115
829.1,-65.4117,-65.4116,-65.4116
830,-65.4117,-65.4117,-65.4116
830.1,-65.4117,-65.4117,-65.4116
831.1,-65.4118,-65.4117,-65.4117
832.1,-65.4118,-65.4117,-65.4117
833.1,-65.4118,-65.4118,-65.4117
834.1,-65.4119,-65.4118,-65.4118
835.1,-65.4119,-65.4118,-65.4118
836.1,-65.4119,-65.4118,-65.4118
837.1,-65.4119,-65.4119,-65.4118
838.1,-65.4119,-65.4119,-65.4119
839.1,-65.4119,-65.4119,-65.4119
840,-65.4119,-65.4119,-65.4119
840.1,-65.4119,-65.4119,-65.4119
841.1,-65.412,-65.4119,-65.4119
842.1,-65.412,-65.4119,-65.4119
843.1,-65.412,-65.412,-65.4119
844.1,-65.412,-65.412,-65.412
845.1,-65.412,-65.412,-65.412
846.1,-65.412,-65.412,-65.412
847.1,-65.412,-65.412,-65.412
848.1,-65.412,-65.412,-65.412
849.1,-65.412,-65.412,-65.412
850,-65.412,-65.412,-65.412
850.1,-65.412,-65.412,-65.412
851.1,-60.7242,-64.0332,-65.0562
852.1,-56.5963,-61.468,-63.5251
853.1,-52.8006,-58.5285,-61.1749
854.1,-48.5969,-55.2709,-58.3416
855.1,-38.6186,-50.614,-54.9007
856.1,18.6168,-30.5298,-46.8367
857.1,28.1798,-6.05138,-26.5347
858.1,18.0525,2.44308,-9.65834
859.1,5.53536,3.20929,-1.195
860,-5.77234,-0.00137154,0.624581
860.1,-6.99213,-0.515873,0.561986
861.1,-18.8358,-6.85911,-2.24288
862.1,-32.4141,-15.1842,-8.01555
863.1,-57.4975,-28.87,-16.9809
864.1,-63.6158,-42.157,-29.8043
865.1,-62.0744,-48.9853,-40.4848
866.1,-59.4255,-52.337,-47.331
867.1,-56.8298,-53.6879,-51.146
868.1,-54.5632,-53.8633,-52.9109
869.1,-52.6696,-53.3813,-53.3887
870,-51.2796,-52.6628,-53.1634
870.1,-51.144,-52.5745,-53.1133
871.1,-50.0186,-51.6728,-52.4476
872.1,-49.4117,-50.869,-51.6517
873.1,-49.5087,-50.3609,-50.9426
874.1,-50.3657,-50.3212,-50.521
875.1,-51.643,-50.7631,-50.5224
876.1,-52.7879,-51.4776,-50.9214
877.1,-53.4901,-52.1943,-51.5397
878.1,-53.7468,-52.7435,-52.1693
879.1,-53.6871,-53.0728,-52.6703
880,-53.4801,-53.1962,-52.9639
880.1,-53.4522,-53.2013,-52.9871
881.1,-53.154,-53.1803,-53.1259
882.1,-52.87,-53.0682,-53.1257
883.1,-52.648,-52.9187,-53.0368
884.1,-52.5106,-52.7742,-52.9083
885.1,-52.4589,-52.6628,-52.7798
886.1,-52.4774,-52.5974,-52.6781
887.1,-52.5407,-52.5776,-52.6163
888.1,-52.6213,-52.5932,-52.595
889.1,-52.6962,-52.6299,-52.6059
890,-52.7471,-52.6688,-52.633
890.1,-52.7516,-52.673,-52.6366
891.1,-52.7821,-52.7116,-52.6742
892.1,-52.79,-52.7392,-52.7089
893.1,-52.7811,-52.7538,-52.7344
894.1,-52.763,-52.7569,-52.7487
895.1,-52.7424,-52.7517,-52.7526
896.1,-52.7245,-52.742,-52.7487
897.1,-52.7119,-52.7313,-52.7406
898.1,-52.7056,-52.7222,-52.7312
899.1,-52.7048,-52.7161,-52.723
900,-52.7074,-52.7133,-52.7178
900.1,-52.7078,-52.7132,-52.7173
901.1,-57.12,-54.0414,-53.0622
902.1,-60.0457,-56.1981,-54.4516
903.1,-61.7737,-58.1536,-56.2901
904.1,-62.7844,-59.7396,-58.0777
905.1,-63.3978,-60.9723,-59.608
906.1,-63.7926,-61.913,-60.8389
907.1,-64.0641,-62.6261,-61.7981
908.1,-64.2633,-63.1668,-62.5341
909.1,-64.4176,-63.5791,-63.096
910,-64.5311,-63.8683,-63.4878
910.1,-64.5425,-63.8965,-63.5258
911.1,-64.6468,-64.1437,-63.8568
912.1,-64.7358,-64.339,-64.1142
913.1,-64.813,-64.4954,-64.317
914.1,-64.8804,-64.6227,-64.479
915.1,-64.9397,-64.7276,-64.6103
916.1,-64.9921,-64.8153,-64.7181
917.1,-65.0385,-64.8893,-64.8079
918.1,-65.0796,-64.9525,-64.8835
919.1,-65.1161,-65.0069,-64.9479
920,-65.1454,-65.0496,-64.9979
920.1,-65.1485,-65.054,-65.0031
921.1,-65.1773,-65.0951,-65.0509
922.1,-65.2029,-65.131,-65.0924
923.1,-65.2257,-65.1625,-65.1288
924.1,-65.246,-65.1903,-65.1607
925.1,-65.264,-65.2149,-65.1887
926.1,-65.2801,-65.2366,-65.2135
927.1,-65.2943,-65.2559,-65.2354
928.1,-65.3071,-65.2729,-65.2548
929.1,-65.3184,-65.2881,-65.272
930,-65.3275,-65.3003,-65.2858
930.1,-65.3285,-65.3016,-65.2873
931.1,-65.3375,-65.3136,-65.3008
932.1,-65.3455,-65.3242,-65.3129
933.1,-65.3527,-65.3337,-65.3237
934.1,-65.3591,-65.3422,-65.3332
935.1,-65.3648,-65.3497,-65.3417
936.1,-65.3698,-65.3564,-65.3493
937.1,-65.3744,-65.3624,-65.3561
938.1,-65.3784,-65.3677,-65.3621
939.1,-65.382,-65.3725,-65.3675
940,-65.3849,-65.3764,-65.3718
940.1,-65.3852,-65.3768,-65.3723
941.1,-65.3881,-65.3805,-65.3765
942.1,-65.3907,-65.3839,-65.3803
943.1,-65.393,-65.3869,-65.3837
944.1,-65.395,-65.3896,-65.3868
945.1,-65.3968,-65.392,-65.3895
946.1,-65.3985,-65.3942,-65.3919
947.1,-65.3999,-65.3961,-65.3941
948.1,-65.4012,-65.3978,-65.396
949.1,-65.4024,-65.3993,-65.3977
950,-65.4033,-65.4005,-65.3991
950.1,-65.4034,-65.4007,-65.3992
951.1,-65.4043,-65.4019,-65.4006
952.1,-65.4051,-65.403,-65.4018
953.1,-65.4059,-65.4039,-65.4029
954.1,-65.4065,-65.4048,-65.4039
955.1,-65.4071,-65.4056,-65.4048
956.1,-65.4077,-65.4063,-65.4055
957.1,-65.4081,-65.4069,-65.4062
958.1,-65.4085,-65.4074,-65.4069
959.1,-65.4089,-65.4079,-65.4074
960,-65.4092,-65.4083,-65.4079
960.1,-65.4092,-65.4084,-65.4079
961.1,-65.4095,-65.4088,-65.4084
962.1,-65.4098,-65.4091,-65.4087
963.1,-65.4101,-65.4094,-65.4091
964.1,-65.4103,-65.4097,-65.4094
965.1,-65.4105,-65.41,-65.4097
966.1,-65.4106,-65.4102,-65.4099
967.1,-65.4108,-65.4104,-65.4102
968.1,-65.4109,-65.4106,-65.4104
969.1,-65.411,-65.4107,-65.4105
970,-65.4111,-65.4108,-65.4107
970.1,-65.4111,-65.4109,-65.4107
971.1,-65.4112,-65.411,-65.4108
972.1,-65.4113,-65.4111,-65.411
973.1,-65.4114,-65.4112,-65.4111
974.1,-65.4115,-65.4113,-65.4112
975.1,-65.4115,-65.4114,-65.4113
976.1,-65.4116,-65.4114,-65.4114
977.1,-65.4116,-65.4115,-65.4114
978.1,-65.4117,-65.4116,-65.4115
979.1,-65.4117,-65.4116,-65.4116
980,-65.4117,-65.4117,-65.4116
980.1,-65.4117,-65.4117,-65.4116
981.1,-65.4118,-65.4117,-65.4117
982.1,-65.4118,-65.4117,-65.4117
983.1,-65.4118,-65.4118,-65.4117
984.1,-65.4119,-65.4118,-65.4118
985.1,-65.4119,-65.4118,-65.4118
986.1,-65.4119,-65.4118,-65.4118
987.1,-65.4119,-65.4119,-65.4118
988.1,-65.4119,-65.4119,-65.4119
989.1,-65.4119,-65.4119,-65.4119
990,-65.4119,-65.4119,-65.4119
990.1,-65.4119,-65.4119,-65.4119
991.1,-65.412,-65.4119,-65.4119
992.1,-65.412,-65.4119,-65.4119
993.1,-65.412,-65.412,-65.4119
994.1,-65.412,-65.412,-65.412
995.1,-65.412,-65.412,-65.412
996.1,-65.412,-65.412,-65.412
997.1,-65.412,-65.412,-65.412
998.1,-65.412,-65.412,-65.412
999.1,-65.412,-65.412,-65.412
1000,-65.412,-65.412,-65.412
